 Values of the electric field strength in V/m 
 (total field,incident and scattered) 
 "Frequency in Hz"  1.1000001E+10
          Theta(deg)            Phi(deg)           radius(m)        Magn(Etheta)       Phase(Etheta)          Magn(Ephi)         Phase(Ephi)          Total(V/m)
 "NearField Radiation"           1
    0.0000    0.0000    1.0000    0.4908035755E+01    0.3888060760E+02    0.2227827263E+02    0.6689673615E+02    0.2281253815E+02
    0.0000   30.0000    1.0000    0.1070571709E+02    0.4492383575E+02    0.2009560394E+02    0.7366908264E+02    0.2276943970E+02
    0.0000   60.0000    1.0000    0.1871556282E+02    0.5988645554E+02    0.1296816826E+02    0.8511875916E+02    0.2276943970E+02
    0.0000   90.0000    1.0000    0.2224595833E+02    0.6702399445E+02    0.4854168892E+01    0.3961654282E+02    0.2276943970E+02
    0.0000  120.0000    1.0000    0.2009560394E+02    0.7366908264E+02    0.1070571804E+02    0.4492383957E+02    0.2276943970E+02
    0.0000  150.0000    1.0000    0.1296816540E+02    0.8511876678E+02    0.1871556664E+02    0.5988645935E+02    0.2276943970E+02
    0.0000  180.0000    1.0000    0.4854168415E+01    0.3961653519E+02    0.2224595833E+02    0.6702399445E+02    0.2276943970E+02
   20.0000    0.0000    1.0000    0.5191621304E+01    0.1155572057E+01    0.1842065239E+02    0.7299063873E+02    0.1913886642E+02
   20.0000   30.0000    1.0000    0.8017438889E+01    0.8626548004E+02    0.2537323952E+02    0.7806078339E+02    0.2661013794E+02
   20.0000   60.0000    1.0000    0.1497219467E+02    0.7942955780E+02    0.1620557213E+02    0.8338569641E+02    0.2206716156E+02
   20.0000   90.0000    1.0000    0.1724357224E+02    0.7122136688E+02    0.7470006466E+01    0.4212497234E+01    0.1881125641E+02
   20.0000  120.0000    1.0000    0.1672819519E+02    0.7226915741E+02    0.1427537251E+02    0.8927345276E+02    0.2199279594E+02
   20.0000  150.0000    1.0000    0.9182149887E+01    0.3011259079E+02    0.1968916321E+02    0.7739909363E+02    0.2172698212E+02
   20.0000  180.0000    1.0000    0.2467876911E+01    0.7953565216E+02    0.2947795486E+02    0.6226838303E+02    0.2958136749E+02
   40.0000    0.0000    1.0000    0.2908807755E+01    0.8042101288E+02    0.1777087784E+02    0.6626199341E+02    0.1800740242E+02
   40.0000   30.0000    1.0000    0.8891775131E+01    0.8783394623E+02    0.2849610901E+02    0.8209032440E+02    0.2986717415E+02
   40.0000   60.0000    1.0000    0.1621468163E+02    0.7154649353E+02    0.1668887329E+02    0.7121315765E+02    0.2327224159E+02
   40.0000   90.0000    1.0000    0.1509512520E+02    0.8957115936E+02    0.4803974152E+01    0.3937889099E+02    0.1588722706E+02
   40.0000  120.0000    1.0000    0.1404693604E+02    0.5350317764E+02    0.1637128639E+02    0.8457394409E+02    0.2157642555E+02
   40.0000  150.0000    1.0000    0.6213711262E+01    0.8118472290E+02    0.2687548447E+02    0.8436849213E+02    0.2760210228E+02
   40.0000  180.0000    1.0000    0.1775523067E+01    0.8664752197E+02    0.1475634098E+02    0.6289929581E+02    0.1486325932E+02
   60.0000    0.0000    1.0000    0.1116751432E+01    0.3988253403E+02    0.2093291092E+02    0.8751483154E+02    0.2096313477E+02
   60.0000   30.0000    1.0000    0.9518783569E+01    0.4245677567E+02    0.1312430382E+02    0.7757643127E+02    0.1624488258E+02
   60.0000   60.0000    1.0000    0.3356480408E+02    0.7371061707E+02    0.7570292950E+01    0.8287057495E+02    0.3441132355E+02
   60.0000   90.0000    1.0000    0.2957212639E+02    0.7764775085E+02    0.2907373905E+01    0.1251226711E+02    0.2974284172E+02
   60.0000  120.0000    1.0000    0.3419759750E+02    0.7946594238E+02    0.1957982254E+02    0.6200967789E+02    0.3940737534E+02
   60.0000  150.0000    1.0000    0.1039009285E+02    0.3829306793E+02    0.2193781471E+02    0.7270262146E+02    0.2428934860E+02
   60.0000  180.0000    1.0000    0.1939224362E+01    0.8949434280E+01    0.2631944084E+02    0.8412877655E+02    0.2639119339E+02
   80.0000    0.0000    1.0000    0.8338016272E+00    0.3771983385E+01    0.3020550156E+02    0.6813011169E+02    0.3021958351E+02
   80.0000   30.0000    1.0000    0.9445792198E+01    0.3582311249E+02    0.3071574593E+02    0.8652223969E+02    0.3213696671E+02
   80.0000   60.0000    1.0000    0.1794823265E+02    0.4126669312E+02    0.2144087219E+02    0.3591575241E+02    0.2797963524E+02
   80.0000   90.0000    1.0000    0.1374252701E+02    0.5921687317E+02    0.1179905415E+01    0.5901010132E+02    0.1379771137E+02
   80.0000  120.0000    1.0000    0.1989580536E+02    0.4064477921E+02    0.1907752419E+02    0.5174948120E+02    0.2758494759E+02
   80.0000  150.0000    1.0000    0.9238619804E+01    0.4507166672E+02    0.3457906342E+02    0.7055352020E+02    0.3579400635E+02
   80.0000  180.0000    1.0000    0.8666080832E+00    0.8825875092E+02    0.2736696434E+02    0.6090019608E+02    0.2738272095E+02
  100.0000    0.0000    1.0000    0.8338003755E+00    0.3772456408E+01    0.3020539284E+02    0.6812944794E+02    0.3021947289E+02
  100.0000   30.0000    1.0000    0.9445835114E+01    0.3582226181E+02    0.3071554756E+02    0.8652149963E+02    0.3213678741E+02
  100.0000   60.0000    1.0000    0.1794824982E+02    0.4126586151E+02    0.2144091988E+02    0.3591632843E+02    0.2797968292E+02
  100.0000   90.0000    1.0000    0.1374253559E+02    0.5921608353E+02    0.1179893732E+01    0.5901304245E+02    0.1379771996E+02
  100.0000  120.0000    1.0000    0.1989582634E+02    0.4064400482E+02    0.1907742119E+02    0.5175003433E+02    0.2758489227E+02
  100.0000  150.0000    1.0000    0.9238657951E+01    0.4507064819E+02    0.3457897186E+02    0.7055264282E+02    0.3579392242E+02
  100.0000  180.0000    1.0000    0.8665935397E+00    0.8825920868E+02    0.2736686134E+02    0.6089948654E+02    0.2738261795E+02
  120.0000    0.0000    1.0000    0.1116748214E+01    0.3988206863E+02    0.2093284607E+02    0.8751493835E+02    0.2096306992E+02
  120.0000   30.0000    1.0000    0.9518786430E+01    0.4245632553E+02    0.1312433052E+02    0.7757585144E+02    0.1624490547E+02
  120.0000   60.0000    1.0000    0.3356478882E+02    0.7371079254E+02    0.7570354939E+01    0.8287052917E+02    0.3441131973E+02
  120.0000   90.0000    1.0000    0.2957211876E+02    0.7764782715E+02    0.2907340765E+01    0.1251216221E+02    0.2974283028E+02
  120.0000  120.0000    1.0000    0.3419761658E+02    0.7946556854E+02    0.1957987404E+02    0.6200942612E+02    0.3940741348E+02
  120.0000  150.0000    1.0000    0.1039005661E+02    0.3829349136E+02    0.2193784714E+02    0.7270288086E+02    0.2428936195E+02
  120.0000  180.0000    1.0000    0.1939212322E+01    0.8949673653E+01    0.2631943703E+02    0.8412881470E+02    0.2639118767E+02
  140.0000    0.0000    1.0000    0.2908804417E+01    0.8042086792E+02    0.1777087402E+02    0.6626256561E+02    0.1800739861E+02
  140.0000   30.0000    1.0000    0.8891765594E+01    0.8783354950E+02    0.2849616432E+02    0.8209068298E+02    0.2986722183E+02
  140.0000   60.0000    1.0000    0.1621469688E+02    0.7154740143E+02    0.1668884468E+02    0.7121393585E+02    0.2327223206E+02
  140.0000   90.0000    1.0000    0.1509513855E+02    0.8957164001E+02    0.4803992748E+01    0.3937910843E+02    0.1588724327E+02
  140.0000  120.0000    1.0000    0.1404690552E+02    0.5350376511E+02    0.1637134933E+02    0.8457427979E+02    0.2157645226E+02
  140.0000  150.0000    1.0000    0.6213698387E+01    0.8118426514E+02    0.2687552643E+02    0.8436882782E+02    0.2760214043E+02
  140.0000  180.0000    1.0000    0.1775529265E+01    0.8664922333E+02    0.1475636292E+02    0.6289954758E+02    0.1486328316E+02
  160.0000    0.0000    1.0000    0.5191636562E+01    0.1155628085E+01    0.1842063332E+02    0.7299044800E+02    0.1913885307E+02
  160.0000   30.0000    1.0000    0.8017385483E+01    0.8626562500E+02    0.2537324333E+02    0.7806099701E+02    0.2661012459E+02
  160.0000   60.0000    1.0000    0.1497219086E+02    0.7942938232E+02    0.1620557594E+02    0.8338573456E+02    0.2206715965E+02
  160.0000   90.0000    1.0000    0.1724356651E+02    0.7122135925E+02    0.7470003605E+01    0.4212415218E+01    0.1881124878E+02
  160.0000  120.0000    1.0000    0.1672819901E+02    0.7226904297E+02    0.1427534389E+02    0.8927324677E+02    0.2199277878E+02
  160.0000  150.0000    1.0000    0.9182140350E+01    0.3011275291E+02    0.1968917274E+02    0.7739923859E+02    0.2172698784E+02
  160.0000  180.0000    1.0000    0.2467862606E+01    0.7953517914E+02    0.2947793388E+02    0.6226828766E+02    0.2958134651E+02
  180.0000    0.0000    1.0000    0.4854168415E+01    0.3961663437E+02    0.2224593925E+02    0.6702395630E+02    0.2276942062E+02
  180.0000   30.0000    1.0000    0.1070570564E+02    0.4492379761E+02    0.2009559441E+02    0.7366909027E+02    0.2276942444E+02
  180.0000   60.0000    1.0000    0.1871554947E+02    0.5988648224E+02    0.1296817398E+02    0.8511879730E+02    0.2276943207E+02
  180.0000   90.0000    1.0000    0.2224595070E+02    0.6702398682E+02    0.4854167938E+01    0.3961666107E+02    0.2276943016E+02
  180.0000  120.0000    1.0000    0.2009559631E+02    0.7366907501E+02    0.1070571613E+02    0.4492382050E+02    0.2276943398E+02
  180.0000  150.0000    1.0000    0.1296815681E+02    0.8511875916E+02    0.1871557045E+02    0.5988645554E+02    0.2276943970E+02
  180.0000  180.0000    1.0000    0.4854168892E+01    0.3961656570E+02    0.2224596977E+02    0.6702402496E+02    0.2276945114E+02
 "NearField Radiation"           2
    0.0000    0.0000    1.0000    0.4854169369E+01    0.3961655807E+02    0.2224595833E+02    0.6702399445E+02    0.2276943970E+02
    0.0000   45.0000    1.0000    0.1510957813E+02    0.5445268631E+02    0.1703368187E+02    0.7815590668E+02    0.2276943970E+02
    0.0000   90.0000    1.0000    0.2224595833E+02    0.6702399445E+02    0.4854168892E+01    0.3961654282E+02    0.2276943970E+02
    0.0000  135.0000    1.0000    0.1703368187E+02    0.7815590668E+02    0.1510957813E+02    0.5445268631E+02    0.2276943970E+02
    0.0000  180.0000    1.0000    0.4854168415E+01    0.3961653519E+02    0.2224595833E+02    0.6702399445E+02    0.2276943970E+02
    0.0000  225.0000    1.0000    0.1510957718E+02    0.5445268631E+02    0.1703368187E+02    0.7815589905E+02    0.2276943970E+02
    0.0000  270.0000    1.0000    0.2224595833E+02    0.6702399445E+02    0.4854168892E+01    0.3961655426E+02    0.2276943970E+02
    0.0000  315.0000    1.0000    0.1703368378E+02    0.7815589905E+02    0.1510957527E+02    0.5445268250E+02    0.2276943970E+02
    0.0000  360.0000    1.0000    0.4854167938E+01    0.3961651230E+02    0.2224595833E+02    0.6702399445E+02    0.2276943970E+02
   30.0000    0.0000    1.0000    0.1258432984E+01    0.2046183014E+02    0.3303749466E+02    0.8684714508E+02    0.3306182480E+02
   30.0000   45.0000    1.0000    0.1990017319E+02    0.6217459488E+02    0.8645539284E+01    0.5775465393E+02    0.2169932938E+02
   30.0000   90.0000    1.0000    0.2579278374E+02    0.8602362823E+02    0.1691930294E+01    0.8525714111E+02    0.2587826920E+02
   30.0000  135.0000    1.0000    0.2305856895E+02    0.7771542358E+02    0.1847930908E+02    0.4641759872E+02    0.2955456161E+02
   30.0000  180.0000    1.0000    0.4612138748E+01    0.1041814923E+01    0.3008828926E+02    0.8706076050E+02    0.3043975639E+02
   30.0000  225.0000    1.0000    0.2234738350E+02    0.6472735596E+02    0.2122051048E+02    0.5377156067E+02    0.3081953430E+02
   30.0000  270.0000    1.0000    0.2625060844E+02    0.8264325714E+02    0.5657467365E+01    0.9912874222E+01    0.2687833214E+02
   30.0000  315.0000    1.0000    0.2036933327E+02    0.7957434082E+02    0.1538357544E+02    0.5117742920E+02    0.2553230095E+02
   30.0000  360.0000    1.0000    0.1258442163E+01    0.2046068001E+02    0.3303745651E+02    0.8684714508E+02    0.3306178665E+02
   60.0000    0.0000    1.0000    0.1116751432E+01    0.3988253403E+02    0.2093291092E+02    0.8751483154E+02    0.2096313477E+02
   60.0000   45.0000    1.0000    0.2513098526E+02    0.7162303925E+02    0.1469690228E+02    0.7103083038E+02    0.2912645912E+02
   60.0000   90.0000    1.0000    0.2957212639E+02    0.7764775085E+02    0.2907373905E+01    0.1251226711E+02    0.2974284172E+02
   60.0000  135.0000    1.0000    0.2855381012E+02    0.7372199249E+02    0.2637545967E+02    0.6548006439E+02    0.3888057327E+02
   60.0000  180.0000    1.0000    0.1939224362E+01    0.8949434280E+01    0.2631944084E+02    0.8412877655E+02    0.2639119339E+02
   60.0000  225.0000    1.0000    0.2706632614E+02    0.7050917053E+02    0.2083880234E+02    0.8951772308E+02    0.3417250061E+02
   60.0000  270.0000    1.0000    0.2991728783E+02    0.8325830078E+02    0.3700608730E+01    0.5626523495E+01    0.3016550446E+02
   60.0000  315.0000    1.0000    0.2648359108E+02    0.7371817780E+02    0.1776293182E+02    0.8079853821E+02    0.3189777756E+02
   60.0000  360.0000    1.0000    0.1116746664E+01    0.3988120651E+02    0.2093293381E+02    0.8751482391E+02    0.2096315765E+02
   90.0000    0.0000    1.0000    0.1950749464E-06    0.2359933853E+01    0.2969540024E+02    0.6568595886E+02    0.2969839668E+02
   90.0000   45.0000    1.0000    0.4050556527E-05    0.2084717560E+02    0.2197222519E+02    0.8874743652E+02    0.2197712708E+02
   90.0000   90.0000    1.0000    0.3480985697E-05    0.5525294113E+02    0.1576086521E+01    0.8415186310E+02    0.1688494205E+01
   90.0000  135.0000    1.0000    0.4161109246E-05    0.2503395653E+02    0.2282118034E+02    0.6259658051E+02    0.2282493973E+02
   90.0000  180.0000    1.0000    0.2130230428E-06    0.8375965881E+02    0.2648192787E+02    0.5804716873E+02    0.2648423386E+02
   90.0000  225.0000    1.0000    0.3999678938E-05    0.2282732201E+02    0.3955336094E+01    0.6723725891E+02    0.3971358299E+01
   90.0000  270.0000    1.0000    0.3581535111E-05    0.5456758881E+02    0.3968697071E+01    0.8580135345E+02    0.4018954277E+01
   90.0000  315.0000    1.0000    0.4270460522E-05    0.2517822456E+02    0.1156684971E+02    0.3268943024E+02    0.1157758236E+02
   90.0000  360.0000    1.0000    0.1950756712E-06    0.2360842466E+01    0.2969544983E+02    0.6568596649E+02    0.2969844437E+02
  120.0000    0.0000    1.0000    0.1116748214E+01    0.3988206863E+02    0.2093284607E+02    0.8751493835E+02    0.2096306992E+02
  120.0000   45.0000    1.0000    0.2513099289E+02    0.7162349701E+02    0.1469690895E+02    0.7103122711E+02    0.2912646675E+02
  120.0000   90.0000    1.0000    0.2957211876E+02    0.7764782715E+02    0.2907340765E+01    0.1251216221E+02    0.2974283028E+02
  120.0000  135.0000    1.0000    0.2855376244E+02    0.7372240448E+02    0.2637545776E+02    0.6548053741E+02    0.3888053513E+02
  120.0000  180.0000    1.0000    0.1939212322E+01    0.8949673653E+01    0.2631943703E+02    0.8412881470E+02    0.2639118767E+02
  120.0000  225.0000    1.0000    0.2706634331E+02    0.7050962067E+02    0.2083876991E+02    0.8951826477E+02    0.3417249298E+02
  120.0000  270.0000    1.0000    0.2991725922E+02    0.8325837708E+02    0.3700631857E+01    0.5625736713E+01    0.3016547966E+02
  120.0000  315.0000    1.0000    0.2648356628E+02    0.7371808624E+02    0.1776294708E+02    0.8079849243E+02    0.3189776802E+02
  120.0000  360.0000    1.0000    0.1116750002E+01    0.3988035965E+02    0.2093286705E+02    0.8751490784E+02    0.2096309090E+02
  150.0000    0.0000    1.0000    0.1258431196E+01    0.2046154594E+02    0.3303747940E+02    0.8684712219E+02    0.3306180954E+02
  150.0000   45.0000    1.0000    0.1990013885E+02    0.6217454910E+02    0.8645538330E+01    0.5775451660E+02    0.2169929504E+02
  150.0000   90.0000    1.0000    0.2579277992E+02    0.8602357483E+02    0.1691908002E+01    0.8525761414E+02    0.2587826157E+02
  150.0000  135.0000    1.0000    0.2305857658E+02    0.7771539307E+02    0.1847928429E+02    0.4641746140E+02    0.2955455208E+02
  150.0000  180.0000    1.0000    0.4612138748E+01    0.1041645527E+01    0.3008825493E+02    0.8706076813E+02    0.3043972206E+02
  150.0000  225.0000    1.0000    0.2234736633E+02    0.6472741699E+02    0.2122048950E+02    0.5377153778E+02    0.3081950760E+02
  150.0000  270.0000    1.0000    0.2625061417E+02    0.8264332581E+02    0.5657473087E+01    0.9912714005E+01    0.2687833977E+02
  150.0000  315.0000    1.0000    0.2036931419E+02    0.7957432556E+02    0.1538353252E+02    0.5117727661E+02    0.2553226280E+02
  150.0000  360.0000    1.0000    0.1258425832E+01    0.2046047783E+02    0.3303746414E+02    0.8684712982E+02    0.3306179428E+02
  180.0000    0.0000    1.0000    0.4854168415E+01    0.3961663437E+02    0.2224593925E+02    0.6702395630E+02    0.2276942062E+02
  180.0000   45.0000    1.0000    0.1510956764E+02    0.5445271301E+02    0.1703368187E+02    0.7815592957E+02    0.2276943398E+02
  180.0000   90.0000    1.0000    0.2224595070E+02    0.6702398682E+02    0.4854167938E+01    0.3961666107E+02    0.2276943016E+02
  180.0000  135.0000    1.0000    0.1703368187E+02    0.7815590668E+02    0.1510957909E+02    0.5445268631E+02    0.2276944160E+02
  180.0000  180.0000    1.0000    0.4854168892E+01    0.3961656570E+02    0.2224596977E+02    0.6702402496E+02    0.2276945114E+02
  180.0000  225.0000    1.0000    0.1510956955E+02    0.5445275879E+02    0.1703369331E+02    0.7815592957E+02    0.2276944351E+02
  180.0000  270.0000    1.0000    0.2224596405E+02    0.6702404785E+02    0.4854157925E+01    0.3961666107E+02    0.2276944160E+02
  180.0000  315.0000    1.0000    0.1703368568E+02    0.7815586090E+02    0.1510956192E+02    0.5445269394E+02    0.2276943207E+02
  180.0000  360.0000    1.0000    0.4854166985E+01    0.3961659241E+02    0.2224593925E+02    0.6702395630E+02    0.2276942062E+02
 "Frequency in Hz"  1.2000000E+10
          Theta(deg)            Phi(deg)           radius(m)        Magn(Etheta)       Phase(Etheta)          Magn(Ephi)         Phase(Ephi)          Total(V/m)
 "NearField Radiation"           1
    0.0000    0.0000    1.0000    0.6256502151E+01    0.1159431744E+02    0.1323523331E+02    0.2470240593E+02    0.1464079285E+02
    0.0000   30.0000    1.0000    0.4028863907E+01    0.7853067017E+02    0.1411707878E+02    0.1718255043E+02    0.1468200493E+02
    0.0000   60.0000    1.0000    0.9252801895E+01    0.3650664139E+02    0.1139777756E+02    0.8260120392E+01    0.1468200493E+02
    0.0000   90.0000    1.0000    0.1330956078E+02    0.2481507683E+02    0.6195098877E+01    0.1243698692E+02    0.1468200493E+02
    0.0000  120.0000    1.0000    0.1411707878E+02    0.1718255043E+02    0.4028864384E+01    0.7853066254E+02    0.1468200493E+02
    0.0000  150.0000    1.0000    0.1139777660E+02    0.8260117531E+01    0.9252803802E+01    0.3650663757E+02    0.1468200493E+02
    0.0000  180.0000    1.0000    0.6195098400E+01    0.1243698978E+02    0.1330956173E+02    0.2481507492E+02    0.1468200493E+02
   20.0000    0.0000    1.0000    0.4818100929E+01    0.3926506805E+02    0.1052281857E+02    0.2224636269E+02    0.1157487106E+02
   20.0000   30.0000    1.0000    0.1557117653E+02    0.4021075821E+02    0.2659142494E+02    0.4649922562E+02    0.3081520462E+02
   20.0000   60.0000    1.0000    0.1594765759E+02    0.3502172852E+02    0.9366623878E+01    0.4943087006E+02    0.1849850845E+02
   20.0000   90.0000    1.0000    0.1347433758E+02    0.2407516479E+02    0.7721415520E+01    0.3367237473E+02    0.1553433323E+02
   20.0000  120.0000    1.0000    0.1457738113E+02    0.5081145859E+02    0.9803376198E+01    0.5850284195E+02    0.1756853676E+02
   20.0000  150.0000    1.0000    0.1338174343E+02    0.8116921425E+01    0.2339620399E+02    0.4443236923E+02    0.2695341873E+02
   20.0000  180.0000    1.0000    0.4632682800E+01    0.1606344414E+02    0.1519595814E+02    0.5893572617E+02    0.1588818836E+02
   40.0000    0.0000    1.0000    0.2421099186E+01    0.5699888229E+02    0.2741066170E+02    0.2254791260E+01    0.2751767159E+02
   40.0000   30.0000    1.0000    0.1917953491E+02    0.3547269058E+02    0.2453220558E+02    0.5529888153E+02    0.3114415932E+02
   40.0000   60.0000    1.0000    0.2886594391E+02    0.3407738113E+02    0.1011418056E+02    0.5308994675E+02    0.3059139252E+02
   40.0000   90.0000    1.0000    0.1839619827E+02    0.1498157692E+02    0.6079086304E+01    0.7923457336E+02    0.1939847374E+02
   40.0000  120.0000    1.0000    0.2655060768E+02    0.2071891594E+02    0.1334779835E+02    0.4783906174E+02    0.2972320747E+02
   40.0000  150.0000    1.0000    0.1635821152E+02    0.4838106537E+02    0.2589822006E+02    0.5310463333E+02    0.3063492203E+02
   40.0000  180.0000    1.0000    0.2216142893E+01    0.6285646439E+02    0.2923639107E+02    0.1827916718E+02    0.2932076263E+02
   60.0000    0.0000    1.0000    0.2236784458E+01    0.5043503189E+02    0.1982621956E+02    0.5385687637E+02    0.1995336723E+02
   60.0000   30.0000    1.0000    0.1281363869E+02    0.3825364304E+02    0.1679715538E+02    0.3525306320E+02    0.2114782906E+02
   60.0000   60.0000    1.0000    0.3218453598E+02    0.6026342392E+02    0.6206391335E+01    0.4988187408E+02    0.3279042435E+02
   60.0000   90.0000    1.0000    0.3604532623E+02    0.4926766586E+02    0.1413105726E+01    0.4605474091E+02    0.3607644272E+02
   60.0000  120.0000    1.0000    0.3287046814E+02    0.5544804382E+02    0.1274917984E+02    0.8590710449E+02    0.3526187134E+02
   60.0000  150.0000    1.0000    0.1487485027E+02    0.4889356232E+02    0.2178444862E+02    0.4749462128E+02    0.2639354706E+02
   60.0000  180.0000    1.0000    0.3492980480E+01    0.7735168457E+02    0.1569502163E+02    0.4904996490E+02    0.1607905197E+02
   80.0000    0.0000    1.0000    0.7659863234E+00    0.3764802170E+02    0.1870530319E+02    0.2438996315E+02    0.1872210503E+02
   80.0000   30.0000    1.0000    0.9021015167E+01    0.1158771229E+02    0.3419246674E+02    0.2065707970E+02    0.3536400604E+02
   80.0000   60.0000    1.0000    0.1626381493E+02    0.1064242935E+02    0.1290981770E+02    0.7817150879E+02    0.2077668571E+02
   80.0000   90.0000    1.0000    0.1488372898E+02    0.1201947403E+02    0.4510937214E+01    0.5226021957E+02    0.1557667351E+02
   80.0000  120.0000    1.0000    0.1836795616E+02    0.1105500317E+02    0.1418682480E+02    0.3661632538E+02    0.2322131729E+02
   80.0000  150.0000    1.0000    0.9097644806E+01    0.1954455948E+02    0.4186071777E+02    0.7791366577E+01    0.4283899689E+02
   80.0000  180.0000    1.0000    0.9477947354E+00    0.1214899158E+02    0.2102438927E+02    0.2387501907E+02    0.2104637146E+02
  100.0000    0.0000    1.0000    0.7659846544E+00    0.3764876938E+02    0.1870519066E+02    0.2438883018E+02    0.1872199249E+02
  100.0000   30.0000    1.0000    0.9020980835E+01    0.1158680534E+02    0.3419238663E+02    0.2065614510E+02    0.3536392212E+02
  100.0000   60.0000    1.0000    0.1626380539E+02    0.1064344788E+02    0.1290987873E+02    0.7817050934E+02    0.2077671814E+02
  100.0000   90.0000    1.0000    0.1488373184E+02    0.1201865768E+02    0.4510909557E+01    0.5226023483E+02    0.1557666874E+02
  100.0000  120.0000    1.0000    0.1836793137E+02    0.1105593395E+02    0.1418682671E+02    0.3661532974E+02    0.2322130203E+02
  100.0000  150.0000    1.0000    0.9097624779E+01    0.1954373932E+02    0.4186069107E+02    0.7790440083E+01    0.4283897018E+02
  100.0000  180.0000    1.0000    0.9477919936E+00    0.1215060711E+02    0.2102427483E+02    0.2387418556E+02    0.2104625511E+02
  120.0000    0.0000    1.0000    0.2236769438E+01    0.5043524170E+02    0.1982623100E+02    0.5385661316E+02    0.1995337868E+02
  120.0000   30.0000    1.0000    0.1281364536E+02    0.3825402832E+02    0.1679708862E+02    0.3525357819E+02    0.2114778328E+02
  120.0000   60.0000    1.0000    0.3218455124E+02    0.6026323318E+02    0.6206374168E+01    0.4988146210E+02    0.3279043198E+02
  120.0000   90.0000    1.0000    0.3604532242E+02    0.4926759720E+02    0.1413130045E+01    0.4605380630E+02    0.3607643509E+02
  120.0000  120.0000    1.0000    0.3287047577E+02    0.5544853973E+02    0.1274920082E+02    0.8590748596E+02    0.3526189041E+02
  120.0000  150.0000    1.0000    0.1487487030E+02    0.4889320374E+02    0.2178445435E+02    0.4749440765E+02    0.2639356232E+02
  120.0000  180.0000    1.0000    0.3492981911E+01    0.7735149384E+02    0.1569497395E+02    0.4904987335E+02    0.1607900429E+02
  140.0000    0.0000    1.0000    0.2421101809E+01    0.5699839401E+02    0.2741069031E+02    0.2255318403E+01    0.2751770210E+02
  140.0000   30.0000    1.0000    0.1917952919E+02    0.3547301865E+02    0.2453225327E+02    0.5529922485E+02    0.3114419746E+02
  140.0000   60.0000    1.0000    0.2886594772E+02    0.3407836914E+02    0.1011419106E+02    0.5309098816E+02    0.3059140015E+02
  140.0000   90.0000    1.0000    0.1839619064E+02    0.1498222828E+02    0.6079101562E+01    0.7923419189E+02    0.1939846992E+02
  140.0000  120.0000    1.0000    0.2655060196E+02    0.2071933937E+02    0.1334782600E+02    0.4783969498E+02    0.2972321701E+02
  140.0000  150.0000    1.0000    0.1635820007E+02    0.4838137436E+02    0.2589821625E+02    0.5310511017E+02    0.3063491249E+02
  140.0000  180.0000    1.0000    0.2216115952E+01    0.6285659027E+02    0.2923647881E+02    0.1827976608E+02    0.2932085037E+02
  160.0000    0.0000    1.0000    0.4818113327E+01    0.3926486588E+02    0.1052280140E+02    0.2224625397E+02    0.1157486057E+02
  160.0000   30.0000    1.0000    0.1557113457E+02    0.4021072388E+02    0.2659141731E+02    0.4649938583E+02    0.3081517792E+02
  160.0000   60.0000    1.0000    0.1594764805E+02    0.3502180862E+02    0.9366626740E+01    0.4943081665E+02    0.1849850273E+02
  160.0000   90.0000    1.0000    0.1347434807E+02    0.2407524490E+02    0.7721394062E+01    0.3367227936E+02    0.1553433132E+02
  160.0000  120.0000    1.0000    0.1457742977E+02    0.5081169510E+02    0.9803375244E+01    0.5850318527E+02    0.1756857300E+02
  160.0000  150.0000    1.0000    0.1338174725E+02    0.8117007256E+01    0.2339618683E+02    0.4443246841E+02    0.2695340729E+02
  160.0000  180.0000    1.0000    0.4632694244E+01    0.1606345367E+02    0.1519593334E+02    0.5893590927E+02    0.1588816738E+02
  180.0000    0.0000    1.0000    0.6195090294E+01    0.1243704891E+02    0.1330954742E+02    0.2481501961E+02    0.1468198967E+02
  180.0000   30.0000    1.0000    0.4028862000E+01    0.7853063965E+02    0.1411707783E+02    0.1718245697E+02    0.1468200493E+02
  180.0000   60.0000    1.0000    0.9252799034E+01    0.3650653839E+02    0.1139778423E+02    0.8259996414E+01    0.1468200874E+02
  180.0000   90.0000    1.0000    0.1330955696E+02    0.2481500626E+02    0.6195096493E+01    0.1243702698E+02    0.1468200016E+02
  180.0000  120.0000    1.0000    0.1411705875E+02    0.1718249893E+02    0.4028853893E+01    0.7853076935E+02    0.1468198204E+02
  180.0000  150.0000    1.0000    0.1139776325E+02    0.8260073662E+01    0.9252797127E+01    0.3650665283E+02    0.1468199062E+02
  180.0000  180.0000    1.0000    0.6195087910E+01    0.1243699169E+02    0.1330955982E+02    0.2481509399E+02    0.1468199921E+02
 "NearField Radiation"           2
    0.0000    0.0000    1.0000    0.6195099354E+01    0.1243698406E+02    0.1330956078E+02    0.2481507683E+02    0.1468200493E+02
    0.0000   45.0000    1.0000    0.6490765572E+01    0.4892761993E+02    0.1316790104E+02    0.1319775391E+02    0.1468200493E+02
    0.0000   90.0000    1.0000    0.1330956078E+02    0.2481507683E+02    0.6195098877E+01    0.1243698692E+02    0.1468200493E+02
    0.0000  135.0000    1.0000    0.1316790104E+02    0.1319775391E+02    0.6490765572E+01    0.4892761993E+02    0.1468200493E+02
    0.0000  180.0000    1.0000    0.6195098400E+01    0.1243698978E+02    0.1330956173E+02    0.2481507492E+02    0.1468200493E+02
    0.0000  225.0000    1.0000    0.6490764618E+01    0.4892762375E+02    0.1316790199E+02    0.1319775391E+02    0.1468200493E+02
    0.0000  270.0000    1.0000    0.1330956078E+02    0.2481507683E+02    0.6195099354E+01    0.1243698406E+02    0.1468200493E+02
    0.0000  315.0000    1.0000    0.1316790199E+02    0.1319775486E+02    0.6490763664E+01    0.4892763138E+02    0.1468200493E+02
    0.0000  360.0000    1.0000    0.6195097446E+01    0.1243699551E+02    0.1330956173E+02    0.2481507492E+02    0.1468200493E+02
   30.0000    0.0000    1.0000    0.2368745327E+01    0.1512194920E+02    0.2795383263E+02    0.6359875488E+02    0.2805429459E+02
   30.0000   45.0000    1.0000    0.7387193203E+01    0.8773091125E+02    0.8305803299E+01    0.4188943386E+01    0.1111585331E+02
   30.0000   90.0000    1.0000    0.2849216461E+02    0.5551527405E+02    0.1649738073E+01    0.2280325508E+02    0.2854814720E+02
   30.0000  135.0000    1.0000    0.1081996918E+02    0.4375936508E+02    0.8289829254E+01    0.6654634094E+02    0.1363446426E+02
   30.0000  180.0000    1.0000    0.5665473938E+01    0.8876371002E+02    0.2287772751E+02    0.5604093552E+02    0.2356892204E+02
   30.0000  225.0000    1.0000    0.9614460945E+01    0.8751506042E+02    0.1424420166E+02    0.4956700516E+02    0.1718675232E+02
   30.0000  270.0000    1.0000    0.2845653152E+02    0.4379733276E+02    0.6076720238E+01    0.8450882721E+02    0.2910141945E+02
   30.0000  315.0000    1.0000    0.9116029739E+01    0.3881122589E+02    0.7064157009E+01    0.3470524216E+02    0.1153805542E+02
   30.0000  360.0000    1.0000    0.2368751049E+01    0.1512141323E+02    0.2795381165E+02    0.6359873962E+02    0.2805427361E+02
   60.0000    0.0000    1.0000    0.2236784458E+01    0.5043503189E+02    0.1982621956E+02    0.5385687637E+02    0.1995336723E+02
   60.0000   45.0000    1.0000    0.2573930740E+02    0.4904866791E+02    0.1640017319E+02    0.5177078629E+02    0.3052678490E+02
   60.0000   90.0000    1.0000    0.3604532623E+02    0.4926766586E+02    0.1413105726E+01    0.4605474091E+02    0.3607644272E+02
   60.0000  135.0000    1.0000    0.2772266960E+02    0.4931131744E+02    0.1944279861E+02    0.5382248306E+02    0.3386689758E+02
   60.0000  180.0000    1.0000    0.3492980480E+01    0.7735168457E+02    0.1569502163E+02    0.4904996490E+02    0.1607905197E+02
   60.0000  225.0000    1.0000    0.2742215729E+02    0.4987270355E+02    0.1373988914E+02    0.1311447769E+00    0.3068027496E+02
   60.0000  270.0000    1.0000    0.3612643433E+02    0.4204364395E+02    0.5513022423E+01    0.8139733887E+02    0.3654737091E+02
   60.0000  315.0000    1.0000    0.2817354774E+02    0.4562105560E+02    0.1893454742E+02    0.1513855934E+02    0.3394990158E+02
   60.0000  360.0000    1.0000    0.2236769438E+01    0.5043503952E+02    0.1982626343E+02    0.5385684586E+02    0.1995340729E+02
   90.0000    0.0000    1.0000    0.1576322148E-06    0.3944218826E+02    0.1795714760E+02    0.1317449379E+02    0.1795861244E+02
   90.0000   45.0000    1.0000    0.3156638968E-05    0.3701321030E+02    0.2795150757E+02    0.7354000092E+01    0.2795706367E+02
   90.0000   90.0000    1.0000    0.3650170356E-05    0.5945847034E+01    0.4581644535E+01    0.6468332672E+02    0.4651181221E+01
   90.0000  135.0000    1.0000    0.3347711299E-05    0.3188676262E+02    0.3390329742E+02    0.4535991192E+01    0.3390758514E+02
   90.0000  180.0000    1.0000    0.2193844182E-06    0.2488328934E+02    0.2099725151E+02    0.1673460007E+02    0.2099787140E+02
   90.0000  225.0000    1.0000    0.3145095661E-05    0.3394711685E+02    0.2202033997E+02    0.3959514618E+01    0.2202606964E+02
   90.0000  270.0000    1.0000    0.3582396630E-05    0.9676358223E+01    0.3275329590E+01    0.6970176697E+02    0.3426057577E+01
   90.0000  315.0000    1.0000    0.3409148121E-05    0.3275629807E+02    0.2075412369E+02    0.2339224625E+02    0.2076485443E+02
   90.0000  360.0000    1.0000    0.1576299411E-06    0.3944386292E+02    0.1795710564E+02    0.1317454433E+02    0.1795857048E+02
  120.0000    0.0000    1.0000    0.2236769438E+01    0.5043524170E+02    0.1982623100E+02    0.5385661316E+02    0.1995337868E+02
  120.0000   45.0000    1.0000    0.2573927498E+02    0.4904817963E+02    0.1640017891E+02    0.5177018738E+02    0.3052676201E+02
  120.0000   90.0000    1.0000    0.3604532242E+02    0.4926759720E+02    0.1413130045E+01    0.4605380630E+02    0.3607643509E+02
  120.0000  135.0000    1.0000    0.2772263145E+02    0.4931076431E+02    0.1944273758E+02    0.5382204819E+02    0.3386682892E+02
  120.0000  180.0000    1.0000    0.3492981911E+01    0.7735149384E+02    0.1569497395E+02    0.4904987335E+02    0.1607900429E+02
  120.0000  225.0000    1.0000    0.2742210007E+02    0.4987230682E+02    0.1373980618E+02    0.1316208094E+00    0.3068018723E+02
  120.0000  270.0000    1.0000    0.3612641144E+02    0.4204356384E+02    0.5513075829E+01    0.8139693451E+02    0.3654735947E+02
  120.0000  315.0000    1.0000    0.2817349815E+02    0.4562109375E+02    0.1893452644E+02    0.1513853741E+02    0.3394984436E+02
  120.0000  360.0000    1.0000    0.2236767292E+01    0.5043503952E+02    0.1982621956E+02    0.5385660172E+02    0.1995336533E+02
  150.0000    0.0000    1.0000    0.2368746996E+01    0.1512174892E+02    0.2795380592E+02    0.6359876251E+02    0.2805426788E+02
  150.0000   45.0000    1.0000    0.7387169838E+01    0.8773104858E+02    0.8305826187E+01    0.4188974380E+01    0.1111585426E+02
  150.0000   90.0000    1.0000    0.2849214363E+02    0.5551530457E+02    0.1649742126E+01    0.2280411339E+02    0.2854812431E+02
  150.0000  135.0000    1.0000    0.1081995296E+02    0.4375929260E+02    0.8289786339E+01    0.6654645538E+02    0.1363442516E+02
  150.0000  180.0000    1.0000    0.5665477753E+01    0.8876374817E+02    0.2287771416E+02    0.5604103851E+02    0.2356891060E+02
  150.0000  225.0000    1.0000    0.9614444733E+01    0.8751512146E+02    0.1424419975E+02    0.4956707001E+02    0.1718673897E+02
  150.0000  270.0000    1.0000    0.2845653343E+02    0.4379730988E+02    0.6076748371E+01    0.8450865173E+02    0.2910142708E+02
  150.0000  315.0000    1.0000    0.9116032600E+01    0.3881121826E+02    0.7064142704E+01    0.3470500183E+02    0.1153804970E+02
  150.0000  360.0000    1.0000    0.2368739367E+01    0.1512138748E+02    0.2795377350E+02    0.6359872055E+02    0.2805423355E+02
  180.0000    0.0000    1.0000    0.6195090294E+01    0.1243704891E+02    0.1330954742E+02    0.2481501961E+02    0.1468198967E+02
  180.0000   45.0000    1.0000    0.6490765572E+01    0.4892759323E+02    0.1316790295E+02    0.1319764996E+02    0.1468200779E+02
  180.0000   90.0000    1.0000    0.1330955696E+02    0.2481500626E+02    0.6195096493E+01    0.1243702698E+02    0.1468200016E+02
  180.0000  135.0000    1.0000    0.1316789722E+02    0.1319771099E+02    0.6490765572E+01    0.4892753601E+02    0.1468200016E+02
  180.0000  180.0000    1.0000    0.6195087910E+01    0.1243699169E+02    0.1330955982E+02    0.2481509399E+02    0.1468199921E+02
  180.0000  225.0000    1.0000    0.6490767002E+01    0.4892759323E+02    0.1316788673E+02    0.1319777966E+02    0.1468199253E+02
  180.0000  270.0000    1.0000    0.1330954647E+02    0.2481508446E+02    0.6195075035E+01    0.1243703842E+02    0.1468198204E+02
  180.0000  315.0000    1.0000    0.1316788197E+02    0.1319772530E+02    0.6490761757E+01    0.4892756271E+02    0.1468198681E+02
  180.0000  360.0000    1.0000    0.6195088863E+01    0.1243706131E+02    0.1330954838E+02    0.2481501961E+02    0.1468198967E+02
